File: examples/hot axisymmetric compression example/data/04 corrected data/testID_0135.csv
level_0,index,Time(sec),Force(kN),Jaw(mm),PowAngle(deg),Power(W),Pram,PTemp,Strain,Stress(MPa),Stroke(mm),TC1(C),wedge(mm),uncorrected stress
1873,1873,155.3448,1.15913,0.0382783,0.0,0,9.03371,0.0,0.00235058,14.0922,10.0417,331.971,-9.30676,14.0922
1878,1878,155.3458,6.06837,0.142656,0.0,0,8.88739,0.0,0.00918747,73.2285,9.88548,332.245,-9.30375,73.2285
1883,1883,155.3468,7.72218,0.375012,0.0,0,8.74165,0.0,0.02492414,91.6335,9.67453,332.519,-9.30207,91.6335
1888,1888,155.3478,8.76802,0.540779,0.0,0,8.60235,0.0,0.0362451,102.786,9.45956,332.794,-9.30005,102.786
1893,1893,155.3488,9.13226,0.682401,0.0,0,8.46319,0.0,0.0464293,105.937,9.29891,333.0654,-9.29982,105.937
1898,1898,155.3498,9.09058,0.897864,0.0,0,8.32403,0.0,0.0609929,103.758,9.11332,333.315,-9.3004,103.758
1903,1903,155.3508,9.57867,1.05119,0.0,0,8.18487,0.0,0.0725997,108.057,8.93151,333.565,-9.29917,108.057
1908,1908,155.3518,9.770648,1.18523,0.0,0,8.04627,0.0,0.0819965,109.088,8.7882,333.815,-9.30061,109.088
1913,1913,155.3528,9.9906,1.36479,0.0,0,7.91374,0.0,0.0947543,109.99,8.62972,334.065,-9.298934,109.99
1918,1918,155.3538,10.16041,1.507689,0.0,0,7.78134,0.0,0.106002,110.601,8.46197,334.315,-9.30055,110.601
1923,1923,155.3548,10.1858,1.64851,0.0,0,7.64893,0.0,0.115676,109.635,8.32515,334.565,-9.300909,109.635
1928,1928,155.3558,10.40061,1.78992,0.0,0,7.51654,0.0,0.126903,110.671,8.18161,334.815,-9.29881,110.671
1933,1933,155.3568,10.5366,1.93074,0.0,0,7.38467,0.0,0.137386,110.831,8.03274,335.064,-9.30008,110.831
1938,1938,155.3578,10.69634,2.05889,0.0,0,7.25862,0.0,0.147219,111.323,7.89912,335.3143,-9.29971,111.323
1943,1943,155.3588,10.901,2.18826,0.0,0,7.1327,0.0,0.1574358,112.229,7.76787,335.542,-9.2988,112.229
1948,1948,155.3598,10.9387,2.32215,0.0,0,7.00678,0.0,0.167594,111.346,7.63343,335.566,-9.29901,111.346
1953,1953,155.3608,11.0882,2.44326,0.0,0,6.88086,0.0,0.17778,111.701,7.50385,335.59,-9.29921,111.701
1958,1958,155.3618,11.2697,2.5757,0.0,0,6.75544,0.0,0.187619,112.234,7.37723,335.615,-9.29985,112.234
1963,1963,155.3628,11.3226,2.69887,0.0,0,6.63552,0.0,0.198166,111.549,7.24872,335.639,-9.2992,111.549
1968,1968,155.3638,11.5305,2.81715,0.0,0,6.51572,0.0,0.207601,112.413,7.122323,335.663,-9.29927,112.413
1973,1973,155.3648,11.6093,2.94825,0.0,0,6.39592,0.0,0.218111,111.858,6.99968,335.687,-9.29907,111.858
1978,1978,155.3658,11.7524,3.06304,0.0,0,6.27612,0.0,0.228293,112.065,6.87789,335.712,-9.29922,112.065
1983,1983,155.3668,11.8742,3.18798,0.0,0,6.1568,0.0,0.2381532,111.936,6.749867,335.736,-9.30001,111.936
1988,1988,155.3678,12.0142,3.30664,0.0,0,6.042748,0.0,0.24899,112.015,6.626976,335.76,-9.29903,112.015
1993,1993,155.3688,12.1264,3.42891,0.0,0,5.92881,0.0,0.258929,111.772,6.50418,335.759,-9.29957,111.772
1998,1998,155.3698,12.2835,3.54692,0.0,0,5.81487,0.0,0.269431,111.958,6.38406,335.521,-9.29882,111.958
2003,2003,155.3708,12.3762,3.66351,0.0,0,5.70093,0.0,0.279782,111.547,6.25985,335.283,-9.298872,111.547
2008,2008,155.3718,12.5493,3.78867,0.0,0,5.58744,0.0,0.290208,111.74,6.14543,335.045,-9.30091,111.74
2013,2013,155.3728,12.6326,3.89682,0.0,0,5.47893,0.0,0.300915,111.291,6.02859,334.808,-9.29859,111.291
2018,2018,155.3738,12.7934,4.01719,0.0,0,5.37053,0.0,0.310862,111.366,5.91009,334.57,-9.30022,111.366
2023,2023,155.3748,12.8973,4.13239,0.0,0,5.26213,0.0,0.321953,110.976,5.79387,334.3324,-9.3006,110.976
2028,2028,155.3758,13.0472,4.24404,0.0,0,5.15373,0.0,0.332122,110.996,5.67774,334.0947,-9.29863,110.996
2033,2033,155.3768,13.1543,4.35959,0.0,0,5.04577,0.0,0.342728,110.582,5.56605,333.857,-9.30114,110.582
2038,2038,155.3778,13.3063,4.46532,0.0,0,4.942564,0.0,0.353471,110.632,5.45245,333.619,-9.29958,110.632
2043,2043,155.3788,13.3996,4.58704,0.0,0,4.83946,0.0,0.363929,109.985,5.34033,333.337,-9.29999,109.985
2048,2048,155.3798,13.58889,4.69056,0.0,0,4.73636,0.0,0.374917,110.311,5.22862,332.648,-9.29984,110.311
2053,2053,155.3808,13.678,4.80071,0.0,0,4.63326,0.0,0.3851231,109.719,5.12037,331.959,-9.298687,109.719
2058,2058,155.3818,13.8597,4.91873,0.0,0,4.53058,0.0,0.396738,109.748,5.01058,331.271,-9.29911,109.748
2063,2063,155.3828,13.9654,5.01973,0.0,0,4.4324,0.0,0.407342,109.353,4.89777,330.582,-9.29949,109.353
2068,2068,155.3838,14.1666,5.13015,0.0,0,4.33432,0.0,0.417763,109.561,4.79136,329.894,-9.29873,109.561
2073,2073,155.3848,14.261,5.23498,0.0,0,4.23624,0.0,0.4293094,108.985,4.68248,329.2049,-9.29899,108.985
2078,2078,155.3858,14.4329,5.34501,0.0,0,4.13816,0.0,0.439692,108.91,4.57935,328.5163,-9.29903,108.91
2083,2083,155.3868,14.5513,5.44486,0.0,0,4.04047,0.0,0.450666,108.533,4.476,327.8277,-9.30035,108.533
2088,2088,155.3878,14.7442,5.54507,0.0,0,3.9471,0.0,0.461179,108.679,4.37631,327.1391,-9.29901,108.679
2093,2093,155.3888,14.8553,5.65509,0.0,0,3.85382,0.0,0.472326,108.068,4.2713,326.4541,-9.29946,108.068
2098,2098,155.3898,15.0362,5.74378,0.0,0,3.76054,0.0,0.482859,108.217,4.17235,325.802,-9.29904,108.217
2103,2103,155.3908,15.1698,5.84507,0.0,0,3.66726,0.0,0.492846,107.833,4.07398,325.149,-9.29891,107.833
2108,2108,155.3918,15.3657,5.94166,0.0,0,3.57435,0.0,0.504468,107.925,3.97545,324.496,-9.29928,107.925
2113,2113,155.3928,15.4846,6.03577,0.0,0,3.48552,0.0,0.514195,107.484,3.88152,323.844,-9.29833,107.484
2118,2118,155.3938,15.67928,6.13247,0.0,0,3.39678,0.0,0.525233,107.506,3.78653,323.191,-9.29951,107.506
2123,2123,155.3948,15.8193,6.22155,0.0,0,3.30804,0.0,0.535787,107.23,3.69345,322.539,-9.29859,107.23
2128,2128,155.3958,16.0279,6.32278,0.0,0,3.2193,0.0,0.546023,107.222,3.6016,321.886,-9.29891,107.222
2133,2133,155.3968,16.1801,6.407104,0.0,0,3.13092,0.0,0.55729,107.043,3.51006,321.234,-9.29861,107.043
2138,2138,155.3978,16.39889,6.50073,0.0,0,3.04641,0.0,0.567204,107.144,3.41928,320.5813,-9.29866,107.144
2143,2143,155.3988,16.5548,6.59646,0.0,0,2.96199,0.0,0.579153,106.771,3.32798,319.8793,-9.29865,106.771
2148,2148,155.3998,16.7936,6.67819,0.0,0,2.87757,0.0,0.588899,107.107,3.23805,318.732,-9.29836,107.107
2153,2153,155.4008,16.9473,6.77444,0.0,0,2.79315,0.0,0.599966,106.654,3.15107,317.585,-9.29872,106.654
2158,2158,155.4018,17.1919,6.854495,0.0,0,2.70907,0.0,0.611035,106.985,3.05987,316.438,-9.29817,106.985
2163,2163,155.4028,17.3728,6.94823,0.0,0,2.62869,0.0,0.621012,106.68,2.97297,315.291,-9.29865,106.68
2168,2168,155.4038,17.6115,7.03079,0.0,0,2.54839,0.0,0.632506,106.867,2.88496,314.143,-9.2969,106.867
2173,2173,155.4048,17.8333,7.11689,0.0,0,2.46809,0.0,0.642808,106.863,2.80421,312.996,-9.2978,106.863
2178,2178,155.4058,18.0699,7.21012,0.0,0,2.38779,0.0,0.65454,106.799,2.71726,311.849,-9.29792,106.799
2183,2183,155.4068,18.2933,7.28382,0.0,0,2.30781,0.0,0.664873,106.934,2.63308,310.7019,-9.2985,106.934
2188,2188,155.4078,18.5202,7.37202,0.0,0,2.23135,0.0,0.675165,106.823,2.54841,309.555,-9.29721,106.823
2193,2193,155.4088,18.7658,7.45418,0.0,0,2.15497,0.0,0.687372,106.883,2.46549,308.574,-9.298131,106.883
2198,2198,155.4098,19.0275,7.5398,0.0,0,2.07859,0.0,0.697552,106.939,2.38229,309.0892,-9.29817,106.939
2203,2203,155.4108,19.2693,7.61765,0.0,0,2.00221,0.0,0.7085644,106.977,2.30088,309.605,-9.297266,106.977
2208,2208,155.4118,19.5236,7.69769,0.0,0,1.92614,0.0,0.719639,107.013,2.22019,310.12,-9.29781,107.013
2213,2213,155.4128,19.783,7.78396,0.0,0,1.8534,0.0,0.730474,106.931,2.141324,310.635,-9.29702,106.931
2218,2218,155.4138,20.0352,7.8516,0.0,0,1.78074,0.0,0.741469,107.1,2.06361,311.151,-9.29804,107.1
2223,2223,155.4148,20.31422,7.935667,0.0,0,1.70808,0.0,0.751879,107.086,1.98449,311.666,-9.29626,107.086
2228,2228,155.4158,20.5943,8.01069,0.0,0,1.63542,0.0,0.763758,107.201,1.909179,312.182,-9.29699,107.201
2233,2233,155.4168,20.874,8.083622,0.0,0,1.56305,0.0,0.7737267,107.314,1.830716,312.6969,-9.2965,107.314
2238,2238,155.4178,21.1698,8.16168,0.0,0,1.49387,0.0,0.784824,107.377,1.75818,313.212,-9.29625,107.377
2243,2243,155.4188,21.4665,8.22932,0.0,0,1.42475,0.0,0.795799,107.601,1.68671,313.83,-9.29664,107.601
2248,2248,155.4198,21.7693,8.3118,0.0,0,1.35563,0.0,0.806221,107.534,1.61569,315.374,-9.29778,107.534
2253,2253,155.4208,22.1063,8.37712,0.0,0,1.28651,0.0,0.817959,107.925,1.54241,316.917,-9.2966,107.925
2258,2258,155.4218,22.4123,8.44902,0.0,0,1.21766,0.0,0.827523,107.996,1.4691,318.461,-9.29688,107.996
2263,2263,155.4228,22.7788,8.52725,0.0,0,1.15186,0.0,0.8399902,108.189,1.39579,320.004,-9.29505,108.189
2268,2268,155.4238,23.1069,8.59152,0.0,0,1.08612,0.0,0.850316,108.436,1.32307,321.5473,-9.29582,108.436
2273,2273,155.4248,23.4731,8.66322,0.0,0,1.02038,0.0,0.860549,108.668,1.2545,323.091,-9.29509,108.668
2278,2278,155.4258,23.8032,8.72918,0.0,0,0.954636,0.0,0.872782,108.809,1.18396,324.634,-9.29544,108.809
2283,2283,155.4268,24.2014,8.803504,0.0,0,0.889161,0.0,0.8827073,109.041,1.11445,326.1774,-9.29506,109.041
2288,2288,155.4278,24.5242,8.86422,0.0,0,0.826577,0.0,0.894009,109.179,1.04956,327.721,-9.29444,109.179
2293,2293,155.4288,24.931,8.92855,0.0,0,0.7640574,0.0,0.903961,109.573,0.981724,329.16,-9.29451,109.573
2298,2298,155.4298,25.2773,9.00215,0.0,0,0.701537,0.0,0.915564,109.451,0.915818,329.659,-9.29382,109.451
2303,2303,155.4308,25.6602,9.05405,0.0,0,0.639017,0.0,0.925813,109.932,0.851515,330.159,-9.2949,109.932
2308,2308,155.4318,26.029,9.12279,0.0,0,0.576745,0.0,0.935634,109.93,0.789671,330.658,-9.29353,109.93
2313,2313,155.4328,26.4476,9.1798,0.0,0,0.517186,0.0,0.9473967,110.366,0.723762,331.157,-9.29518,110.366
2318,2318,155.4338,26.8103,9.24188,0.0,0,0.457686,0.0,0.956371,110.407,0.662756,331.657,-9.29242,110.407
2323,2323,155.4348,27.2421,9.2999,0.0,0,0.398186,0.0,0.967219,110.788,0.603625,332.156,-9.29367,110.788
2328,2328,155.4358,27.6268,9.35261,0.0,0,0.3386859,0.0,0.977025,111.065,0.546821,332.656,-9.29281,111.065
2330,2330,155.4362,27.7824,9.38514,0.0,0,0.314886,0.0,0.980765,110.892,0.525095,332.855,-9.29194,110.892