File: examples/hot axisymmetric compression example/data/04 corrected data/testID_0138.csv
level_0,index,Time(sec),Force(kN),Jaw(mm),PowAngle(deg),Power(W),Pram,PTemp,Strain,Stress(MPa),Stroke(mm),TC1(C),wedge(mm),uncorrected stress
1973,1973,165.3448,1.19292,0.00493977,0.0,0,9.03371,0.0,0.0004131037,14.5372,10.0693,366.053,-9.28895,14.5372
1978,1978,165.3458,6.06783,0.119435,0.0,0,8.88739,0.0,0.00740709,73.3438,9.9079,366.972,-9.28632,73.3438
1983,1983,165.3468,7.26791,0.384664,0.0,0,8.74165,0.0,0.0257647,86.1823,9.688344,367.888,-9.28381,86.1823
1988,1988,165.3478,8.06025,0.558843,0.0,0,8.60235,0.0,0.0374733,94.3631,9.465167,368.664,-9.28286,94.3631
1993,1993,165.3488,8.26749,0.706931,0.0,0,8.46319,0.0,0.04803383,95.7298,9.30618,369.44,-9.28349,95.7298
1998,1998,165.3498,8.22085,0.937495,0.0,0,8.32403,0.0,0.0639983,93.5488,9.1053,370.217,-9.282115,93.5488
2003,2003,165.3508,8.61192,1.10136,0.0,0,8.18487,0.0,0.0757994,96.777,8.91022,370.993,-9.28273,96.777
2008,2008,165.3518,8.80995,1.22598,0.0,0,8.04627,0.0,0.0852121,98.0513,8.76486,371.77,-9.28233,98.0513
2013,2013,165.3528,8.88995,1.41467,0.0,0,7.91374,0.0,0.0983566,97.4884,8.60528,372.546,-9.28195,97.4884
2018,2018,165.3538,8.99382,1.56306,0.0,0,7.78134,0.0,0.110071,97.4707,8.43346,373.322,-9.28202,97.4707
2023,2023,165.3548,8.98116,1.69829,0.0,0,7.64893,0.0,0.119631,96.2806,8.292346,374.099,-9.28351,96.2806
2028,2028,165.3558,9.25132,1.84293,0.0,0,7.51654,0.0,0.13063,98.0165,8.15555,374.875,-9.28146,98.0165
2033,2033,165.3568,9.282053,1.9801,0.0,0,7.38467,0.0,0.1414481,97.2378,8.00454,375.604,-9.28241,97.2378
2038,2038,165.3578,9.39957,2.10962,0.0,0,7.25862,0.0,0.150799,97.4126,7.8754,375.192,-9.28268,97.4126
2043,2043,165.3588,9.56527,2.23179,0.0,0,7.1327,0.0,0.161009,98.1157,7.74308,374.78,-9.28267,98.1157
2048,2048,165.3598,9.58559,2.3648,0.0,0,7.00678,0.0,0.17096,97.2175,7.61655,374.368,-9.28088,97.2175
2053,2053,165.3608,9.65349,2.481344,0.0,0,6.88086,0.0,0.1805921,96.9293,7.4944,373.956,-9.28475,96.9293
2058,2058,165.3618,9.85339,2.6014,0.0,0,6.75544,0.0,0.1901134,97.9091,7.37192,373.5441,-9.28142,97.9091
2063,2063,165.3628,9.83423,2.72722,0.0,0,6.63552,0.0,0.200071,96.6439,7.24699,373.132,-9.2828,96.6439
2068,2068,165.3638,10.0061,2.83509,0.0,0,6.51572,0.0,0.20951,97.3948,7.129,372.72,-9.28218,97.3948
2073,2073,165.3648,10.0903,2.962471,0.0,0,6.39592,0.0,0.219131,97.0979,7.01144,372.308,-9.28159,97.0979
2078,2078,165.3658,10.173,3.07502,0.0,0,6.27612,0.0,0.2293146,96.8977,6.88802,371.896,-9.28298,96.8977
2083,2083,165.3668,10.2789,3.19107,0.0,0,6.1568,0.0,0.238656,96.8696,6.76718,371.491,-9.28291,96.8696
2088,2088,165.3678,10.3843,3.31435,0.0,0,6.042748,0.0,0.249206,96.7493,6.64902,371.191,-9.28138,96.7493
2093,2093,165.3688,10.4879,3.42844,0.0,0,5.92881,0.0,0.259229,96.6738,6.52964,370.891,-9.28367,96.6738
2098,2098,165.3698,10.61025,3.55202,0.0,0,5.81487,0.0,0.269492,96.6602,6.40745,370.591,-9.28119,96.6602
2103,2103,165.3708,10.7075,3.66688,0.0,0,5.70093,0.0,0.28036,96.4755,6.2918,370.291,-9.28265,96.4755
2108,2108,165.3718,10.8328,3.79003,0.0,0,5.58744,0.0,0.290522,96.4425,6.17184,369.991,-9.28208,96.4425
2113,2113,165.3728,10.9275,3.90555,0.0,0,5.47893,0.0,0.301375,96.1866,6.05165,369.692,-9.28243,96.1866
2118,2118,165.3738,11.04131,4.0193,0.0,0,5.37053,0.0,0.311475,96.094,5.93507,369.392,-9.282795,96.094
2123,2123,165.3748,11.1429,4.14266,0.0,0,5.26213,0.0,0.322428,95.7803,5.81672,369.092,-9.2828,95.7803
2128,2128,165.3758,11.2689,4.25215,0.0,0,5.15373,0.0,0.333334,95.7878,5.6996,368.792,-9.281476,95.7878
2133,2133,165.3768,11.3708,4.37339,0.0,0,5.04577,0.0,0.343817,95.4516,5.58282,368.428,-9.28252,95.4516
2138,2138,165.3778,11.5004,4.484,0.0,0,4.942564,0.0,0.355205,95.4298,5.46467,367.329,-9.28283,95.4298
2143,2143,165.3788,11.5942,4.60131,0.0,0,4.83946,0.0,0.365648,95.0219,5.35074,366.229,-9.28169,95.0219
2148,2148,165.3798,11.7151,4.71364,0.0,0,4.73636,0.0,0.376814,94.864,5.24197,365.13,-9.28259,94.864
2153,2153,165.3808,11.8194,4.82248,0.0,0,4.63326,0.0,0.387717,94.5858,5.12782,364.03,-9.28284,94.5858
2158,2158,165.3818,11.9281,4.94378,0.0,0,4.53058,0.0,0.398901,94.1916,5.01424,362.931,-9.28208,94.1916
2163,2163,165.3828,12.05731,5.04247,0.0,0,4.4324,0.0,0.409894,94.1726,4.90787,361.831,-9.28223,94.1726
2168,2168,165.3838,12.1641,5.158916,0.0,0,4.33432,0.0,0.420679,93.7691,4.79845,360.732,-9.28172,93.7691
2173,2173,165.3848,12.3118,5.26475,0.0,0,4.23624,0.0,0.432259,93.7686,4.68817,359.632,-9.28155,93.7686
2178,2178,165.3858,12.3994,5.36796,0.0,0,4.13816,0.0,0.442413,93.3165,4.58225,358.533,-9.28228,93.3165
2183,2183,165.3868,12.54425,5.47773,0.0,0,4.04047,0.0,0.453752,93.2023,4.47933,357.457,-9.28189,93.2023
2188,2188,165.3878,12.664,5.57464,0.0,0,3.9471,0.0,0.464788,93.0181,4.374404,356.595,-9.28193,93.0181
2193,2193,165.3888,12.8155,5.68435,0.0,0,3.85382,0.0,0.475139,92.9005,4.2711,355.733,-9.28062,92.9005
2198,2198,165.3898,12.9144,5.78183,0.0,0,3.76054,0.0,0.4869214,92.5156,4.166481,354.871,-9.28258,92.5156
2203,2203,165.3908,13.08,5.8788,0.0,0,3.66726,0.0,0.496765,92.5908,4.06858,354.008,-9.28171,92.5908
2208,2208,165.3918,13.2115,5.987432,0.0,0,3.57435,0.0,0.508849,92.2647,3.96544,353.1463,-9.28138,92.2647
2213,2213,165.3928,13.3594,6.07909,0.0,0,3.48552,0.0,0.519431,92.2246,3.86956,352.284,-9.28218,92.2246
2218,2218,165.3938,13.4893,6.17704,0.0,0,3.39678,0.0,0.529754,91.9634,3.77142,351.422,-9.28123,91.9634
2223,2223,165.3948,13.6579,6.27152,0.0,0,3.30804,0.0,0.541752,91.9809,3.67812,350.56,-9.28204,91.9809
2228,2228,165.3958,13.7871,6.369597,0.0,0,3.2193,0.0,0.551739,91.6656,3.58342,349.698,-9.28054,91.6656
2233,2233,165.3968,13.9647,6.45829,0.0,0,3.13092,0.0,0.563087,91.7598,3.49213,348.934,-9.28159,91.7598
2238,2238,165.3978,14.09,6.55054,0.0,0,3.04641,0.0,0.573425,91.442,3.39947,348.888,-9.28105,91.442
2243,2243,165.3988,14.2732,6.64628,0.0,0,2.96199,0.0,0.584447,91.4317,3.309288,348.842,-9.28057,91.4317
2248,2248,165.3998,14.4053,6.7271,0.0,0,2.87757,0.0,0.595238,91.2555,3.22156,348.797,-9.28054,91.2555
2253,2253,165.4008,14.6032,6.82026,0.0,0,2.79315,0.0,0.605279,91.3147,3.13167,348.751,-9.28075,91.3147
2258,2258,165.4018,14.7294,6.90457,0.0,0,2.70907,0.0,0.616971,91.0123,3.04279,348.705,-9.2808,91.0123
2263,2263,165.4028,14.9447,6.98941,0.0,0,2.62869,0.0,0.626469,91.2288,2.95904,348.66,-9.28086,91.2288
2268,2268,165.4038,15.0857,7.07681,0.0,0,2.54839,0.0,0.637809,90.9304,2.87277,348.614,-9.28031,90.9304
2273,2273,165.4048,15.2997,7.15596,0.0,0,2.46809,0.0,0.648159,91.1552,2.79301,348.568,-9.28048,91.1552
2278,2278,165.4058,15.4611,7.24821,0.0,0,2.38779,0.0,0.658912,90.8626,2.71011,348.522,-9.27897,90.8626
2283,2283,165.4068,15.6923,7.32025,0.0,0,2.30781,0.0,0.669869,91.2271,2.62569,348.3728,-9.2802,91.2271
2288,2288,165.4078,15.8514,7.40923,0.0,0,2.23135,0.0,0.679848,90.9108,2.54121,347.584,-9.2797,90.9108
2293,2293,165.4088,16.0841,7.49148,0.0,0,2.15497,0.0,0.692152,91.0808,2.45804,346.796,-9.27926,91.0808
2298,2298,165.4098,16.2705,7.5678,0.0,0,2.07859,0.0,0.701728,91.0433,2.37823,346.0072,-9.280365,91.0433
2303,2303,165.4108,16.5034,7.65054,0.0,0,2.00221,0.0,0.712708,91.1435,2.29857,345.219,-9.2797,91.1435
2308,2308,165.4118,16.7195,7.72482,0.0,0,1.92614,0.0,0.723939,91.2434,2.2202,344.43,-9.27956,91.2434
2313,2313,165.4128,16.976,7.81246,0.0,0,1.8534,0.0,0.73419,91.332,2.14275,343.6416,-9.27983,91.332
2318,2318,165.4138,17.1642,7.88306,0.0,0,1.78074,0.0,0.745898,91.2769,2.06497,342.853,-9.279645,91.2769
2323,2323,165.4148,17.44562,7.96304,0.0,0,1.70808,0.0,0.75601,91.5434,1.9842,342.065,-9.27959,91.5434
2328,2328,165.4158,17.66497,8.04493,0.0,0,1.63542,0.0,0.768199,91.4189,1.90946,341.276,-9.27888,91.4189
2333,2333,165.4168,17.9557,8.11618,0.0,0,1.56305,0.0,0.778813,91.7954,1.83191,340.571,-9.2787,91.7954
2338,2338,165.4178,18.1543,8.19475,0.0,0,1.49387,0.0,0.7893821,91.5522,1.7558,340.303,-9.278451,91.5522
2343,2343,165.4188,18.4672,8.262208,0.0,0,1.42475,0.0,0.800838,92.031,1.68549,340.035,-9.27771,92.031
2348,2348,165.4198,18.6871,8.34662,0.0,0,1.35563,0.0,0.811636,91.7349,1.60925,339.767,-9.27808,91.7349
2353,2353,165.4208,19.0008,8.40965,0.0,0,1.28651,0.0,0.822502,92.218,1.53819,339.499,-9.27866,92.218
2358,2358,165.4218,19.26506,8.48408,0.0,0,1.21766,0.0,0.833159,92.2347,1.46534,339.231,-9.27735,92.2347
2363,2363,165.4228,19.5873,8.56373,0.0,0,1.15186,0.0,0.845016,92.3998,1.39432,338.9632,-9.279,92.3998
2368,2368,165.4238,19.8486,8.62216,0.0,0,1.08612,0.0,0.855691,92.6085,1.32155,338.695,-9.27681,92.6085
2373,2373,165.4248,20.1951,8.70037,0.0,0,1.02038,0.0,0.866193,92.8302,1.24953,338.427,-9.27818,92.8302
2378,2378,165.4258,20.5018,8.7674,0.0,0,0.954636,0.0,0.878718,93.0261,1.18002,338.159,-9.27818,93.0261
2383,2383,165.4268,20.8578,8.836935,0.0,0,0.889161,0.0,0.88843,93.36,1.10768,337.986,-9.2763,93.36
2388,2388,165.4278,21.1728,8.9083,0.0,0,0.826577,0.0,0.900962,93.4349,1.04058,338.241,-9.2775,93.4349
2393,2393,165.4288,21.5176,8.96733,0.0,0,0.7640574,0.0,0.910724,93.8339,0.970099,338.497,-9.27602,93.8339
2398,2398,165.4298,21.8568,9.04486,0.0,0,0.701537,0.0,0.922453,93.8153,0.902158,338.753,-9.27605,93.8153
2403,2403,165.4308,22.2353,9.1051,0.0,0,0.639017,0.0,0.9345206,94.2558,0.835628,339.009,-9.27677,94.2558
2408,2408,165.4318,22.5932,9.17201,0.0,0,0.576745,0.0,0.943897,94.4367,0.770685,339.2645,-9.27603,94.4367
2413,2413,165.4328,22.96637,9.23743,0.0,0,0.517186,0.0,0.956902,94.6683,0.704826,339.52,-9.27581,94.6683
2418,2418,165.4338,23.3309,9.2981,0.0,0,0.457686,0.0,0.966641,94.9195,0.640616,339.776,-9.27586,94.9195
2423,2423,165.4348,23.7177,9.36266,0.0,0,0.398186,0.0,0.977697,95.1393,0.575766,340.032,-9.27631,95.1393
2426,2426,165.4354,23.9244,9.40058,0.0,0,0.362486,0.0,0.985029,95.1662,0.5397,340.185,-9.27765,95.1662