File: examples/hot axisymmetric compression example/data/04 corrected data/testID_0141.csv
level_0,index,Time(sec),Force(kN),Jaw(mm),PowAngle(deg),Power(W),Pram,PTemp,Strain,Stress(MPa),Stroke(mm),TC1(C),wedge(mm),uncorrected stress
1972,1972,165.3446,0.173734,0.0417673,0.0,0,9.06297,0.0,0.0025009,2.11164,10.0817,359.453,-9.28931,2.11164
1977,1977,165.3456,6.269731,0.164872,0.0,0,8.91665,0.0,0.0109864,75.5379,9.91672,359.914,-9.28702,75.5379
1982,1982,165.3466,7.11789,0.42837,0.0,0,8.77033,0.0,0.0285843,84.1343,9.68841,360.376,-9.28455,84.1343
1987,1987,165.3476,8.35806,0.601379,0.0,0,8.63019,0.0,0.0410611,97.5419,9.46738,360.8378,-9.283061,97.5419
1992,1992,165.3486,8.47734,0.7594291,0.0,0,8.491025,0.0,0.0518619,97.7744,9.30445,361.2995,-9.28379,97.7744
1997,1997,165.3496,8.32402,0.96753,0.0,0,8.35186,0.0,0.06609416,94.5064,9.110837,361.7612,-9.28232,94.5064
2002,2002,165.3506,8.63731,1.12341,0.0,0,8.21271,0.0,0.0778737,96.8973,8.91951,362.2229,-9.2831,96.8973
2007,2007,165.3516,8.61201,1.27165,0.0,0,8.07354,0.0,0.0878892,95.5076,8.76971,362.6745,-9.28232,95.5076
2012,2012,165.3526,8.93154,1.44161,0.0,0,7.94022,0.0,0.100572,97.7359,8.61436,363.073,-9.28303,97.7359
2017,2017,165.3536,9.10536,1.5887,0.0,0,7.80782,0.0,0.1115905,98.4772,8.45055,363.471,-9.28234,98.4772
2022,2022,165.3546,9.07938,1.7224,0.0,0,7.675415,0.0,0.121349,97.1437,8.31267,363.87,-9.28296,97.1437
2027,2027,165.3556,9.41088,1.850865,0.0,0,7.543015,0.0,0.131391,99.6422,8.17192,364.268,-9.2835,99.6422
2032,2032,165.3566,9.351285,1.99651,0.0,0,7.410615,0.0,0.1422285,97.8298,8.0277,364.667,-9.28304,97.8298
2037,2037,165.3576,9.47452,2.11649,0.0,0,7.2838,0.0,0.151931,98.1328,7.89885,365.065,-9.28139,98.1328
2042,2042,165.3586,9.67881,2.23585,0.0,0,7.15788,0.0,0.160811,99.2463,7.77531,365.464,-9.28377,99.2463
2047,2047,165.3596,9.657444,2.36989,0.0,0,7.03196,0.0,0.171531,97.9035,7.64456,365.862,-9.281743,97.9035
2052,2052,165.3606,9.81205,2.47951,0.0,0,6.90604,0.0,0.180569,98.537,7.52226,366.26,-9.28355,98.537
2057,2057,165.3616,9.98179,2.60297,0.0,0,6.78012,0.0,0.189789,99.1713,7.39873,366.623,-9.28372,99.1713
2062,2062,165.3626,9.97805,2.71915,0.0,0,6.65948,0.0,0.199965,98.1272,7.28018,366.722,-9.28307,98.1272
2067,2067,165.3636,10.1496,2.83202,0.0,0,6.53968,0.0,0.208623,98.8188,7.16028,366.822,-9.28363,98.8188
2072,2072,165.3646,10.22543,2.95448,0.0,0,6.41988,0.0,0.21898,98.4689,7.043097,366.921,-9.28322,98.4689
2077,2077,165.3656,10.3204,3.07044,0.0,0,6.30008,0.0,0.2287229,98.343,6.92051,367.02,-9.2823,98.343
2082,2082,165.3666,10.4355,3.1894,0.0,0,6.18028,0.0,0.238425,98.3601,6.79987,367.12,-9.28439,98.3601
2087,2087,165.3676,10.52381,3.29919,0.0,0,6.06554,0.0,0.248371,98.1878,6.68178,367.219,-9.28228,98.1878
2092,2092,165.3686,10.6508,3.42561,0.0,0,5.9516,0.0,0.258506,98.2013,6.56058,367.319,-9.28385,98.2013
2097,2097,165.3696,10.7483,3.54005,0.0,0,5.83766,0.0,0.268947,98.0299,6.44582,367.418,-9.28333,98.0299
2102,2102,165.3706,10.8555,3.65461,0.0,0,5.72372,0.0,0.278965,97.9253,6.32558,367.5173,-9.28245,97.9253
2107,2107,165.3716,10.9736,3.78115,0.0,0,5.60978,0.0,0.289651,97.7817,6.20557,367.5491,-9.28373,97.7817
2112,2112,165.3726,11.1011,3.89315,0.0,0,5.50061,0.0,0.300478,97.8346,6.08943,366.804,-9.283,97.8346
2117,2117,165.3736,11.1915,4.01274,0.0,0,5.39221,0.0,0.310528,97.4654,5.97029,366.058,-9.28219,97.4654
2122,2122,165.3746,11.3347,4.1315,0.0,0,5.283813,0.0,0.32208,97.5396,5.85114,365.312,-9.28337,97.5396
2127,2127,165.3756,11.4162,4.2469,0.0,0,5.17541,0.0,0.33246,97.0923,5.72986,364.567,-9.28204,97.0923
2132,2132,165.3766,11.5758,4.36522,0.0,0,5.06701,0.0,0.3432987,97.2554,5.61332,363.821,-9.28374,97.2554
2137,2137,165.3776,11.6582,4.47781,0.0,0,4.96318,0.0,0.354534,96.8025,5.49769,363.076,-9.28291,96.8025
2142,2142,165.3786,11.7875,4.59916,0.0,0,4.86008,0.0,0.365134,96.6279,5.37858,362.33,-9.283577,96.6279
2147,2147,165.3796,11.8855,4.70647,0.0,0,4.75698,0.0,0.3763898,96.3181,5.26955,361.585,-9.28233,96.3181
2152,2152,165.3806,12.0081,4.81915,0.0,0,4.65388,0.0,0.387025,96.1306,5.15592,360.839,-9.28362,96.1306
2157,2157,165.3816,12.11382,4.93857,0.0,0,4.55078,0.0,0.398732,95.7134,5.04402,360.089,-9.28287,95.7134
2162,2162,165.3826,12.2649,5.04021,0.0,0,4.45201,0.0,0.409334,95.818,4.93224,359.226,-9.28309,95.818
2167,2167,165.3836,12.3435,5.15601,0.0,0,4.35393,0.0,0.420315,95.1832,4.82263,358.363,-9.28248,95.1832
2172,2172,165.3846,12.5171,5.26016,0.0,0,4.25585,0.0,0.431913,95.3822,4.7139,357.5,-9.28324,95.3822
2177,2177,165.3856,12.5901,5.36926,0.0,0,4.15777,0.0,0.442322,94.7377,4.60586,356.637,-9.28229,94.7377
2182,2182,165.3866,12.7462,5.47333,0.0,0,4.05969,0.0,0.453505,94.752,4.4994,355.774,-9.28283,94.752
2187,2187,165.3876,12.8424,5.57334,0.0,0,3.96575,0.0,0.464386,94.3429,4.39747,354.911,-9.28359,94.3429
2192,2192,165.3886,13.0029,5.68393,0.0,0,3.87247,0.0,0.475208,94.2642,4.29564,354.048,-9.28182,94.2642
2197,2197,165.3896,13.0993,5.77499,0.0,0,3.77919,0.0,0.486147,93.9185,4.19527,353.185,-9.283884,93.9185
2202,2202,165.3906,13.27982,5.87663,0.0,0,3.68591,0.0,0.4963505,94.0307,4.09604,352.322,-9.2806,94.0307
2207,2207,165.3916,13.3662,5.9781,0.0,0,3.59263,0.0,0.508226,93.4542,3.99828,351.46,-9.28339,93.4542
2212,2212,165.3926,13.5558,6.0667,0.0,0,3.50327,0.0,0.518035,93.7278,3.90126,351.743,-9.28292,93.7278
2217,2217,165.3936,13.65766,6.16919,0.0,0,3.41453,0.0,0.528956,93.2049,3.80342,352.027,-9.2816,93.2049
2222,2222,165.3946,13.8295,6.257246,0.0,0,3.32579,0.0,0.540096,93.3098,3.71005,352.311,-9.2836,93.3098
2227,2227,165.3956,13.95764,6.354269,0.0,0,3.23705,0.0,0.549936,92.9869,3.61735,352.594,-9.28263,92.9869
2232,2232,165.3966,14.1426,6.44479,0.0,0,3.14831,0.0,0.561289,93.0958,3.52595,352.8782,-9.28224,93.0958
2237,2237,165.3976,14.2738,6.53388,0.0,0,3.06329,0.0,0.571533,92.844,3.43087,353.162,-9.28147,92.844
2242,2242,165.3986,14.4587,6.62909,0.0,0,2.97887,0.0,0.582404,92.8384,3.34582,353.446,-9.28215,92.8384
2247,2247,165.3996,14.5945,6.71205,0.0,0,2.894454,0.0,0.593348,92.6467,3.25547,353.7294,-9.28154,92.6467
2252,2252,165.4006,14.8323,6.80285,0.0,0,2.810034,0.0,0.603354,92.9739,3.16564,354.013,-9.28233,92.9739
2257,2257,165.4016,14.9643,6.891964,0.0,0,2.72561,0.0,0.615189,92.6298,3.08062,354.297,-9.28248,92.6298
2262,2262,165.4026,15.1912,6.97835,0.0,0,2.64475,0.0,0.625264,92.8809,2.9939,353.116,-9.28096,92.8809
2267,2267,165.4036,15.3346,7.06593,0.0,0,2.56445,0.0,0.636108,92.5774,2.9051,351.874,-9.28266,92.5774
2272,2272,165.4046,15.5676,7.14796,0.0,0,2.48415,0.0,0.647461,92.8613,2.81897,350.632,-9.28143,92.8613
2277,2277,165.4056,15.7285,7.24145,0.0,0,2.40385,0.0,0.657894,92.5277,2.73336,349.39,-9.28186,92.5277
2282,2282,165.4066,15.9626,7.31897,0.0,0,2.32355,0.0,0.66939,92.8165,2.65064,348.148,-9.28143,92.8165
2287,2287,165.4076,16.1172,7.40422,0.0,0,2.24663,0.0,0.679634,92.5064,2.56481,346.9064,-9.28124,92.5064
2292,2292,165.4086,16.371,7.49169,0.0,0,2.170248,0.0,0.691375,92.7022,2.48222,345.664,-9.28012,92.7022
2297,2297,165.4096,16.5662,7.56515,0.0,0,2.093868,0.0,0.701918,92.7366,2.40017,344.423,-9.2812,92.7366
2302,2302,165.4106,16.8045,7.652699,0.0,0,2.01749,0.0,0.71267,92.7746,2.31678,343.181,-9.28066,92.7746
2307,2307,165.4116,17.0237,7.72913,0.0,0,1.941108,0.0,0.724566,92.8386,2.23723,341.939,-9.281354,92.8386
2312,2312,165.4126,17.2743,7.81034,0.0,0,1.86794,0.0,0.734351,92.9694,2.15871,339.949,-9.28114,92.9694
2317,2317,165.4136,17.49,7.88992,0.0,0,1.79528,0.0,0.746207,92.9036,2.08109,337.894,-9.279911,92.9036
2322,2322,165.4146,17.7531,7.96472,0.0,0,1.72262,0.0,0.756994,93.1308,2.00398,335.839,-9.27999,93.1308
2327,2327,165.4156,17.9836,8.04967,0.0,0,1.64996,0.0,0.767961,92.9929,1.92629,333.7847,-9.28065,92.9929
2332,2332,165.4166,18.2652,8.118269,0.0,0,1.5773,0.0,0.7796,93.3437,1.84959,331.73,-9.27877,93.3437
2337,2337,165.4176,18.5047,8.19737,0.0,0,1.50769,0.0,0.789589,93.277,1.77253,329.675,-9.28055,93.277
2342,2342,165.4186,18.7925,8.27237,0.0,0,1.43857,0.0,0.801774,93.484,1.6973,327.62,-9.27982,93.484
2347,2347,165.4196,19.0369,8.34489,0.0,0,1.36945,0.0,0.812263,93.4812,1.62587,325.566,-9.28021,93.4812
2352,2352,165.4206,19.3479,8.41752,0.0,0,1.30033,0.0,0.822822,93.7683,1.55119,323.511,-9.27969,93.7683
2357,2357,165.4216,19.6089,8.48578,0.0,0,1.23121,0.0,0.834562,93.8513,1.47995,321.456,-9.27914,93.8513
2362,2362,165.4226,19.9232,8.567112,0.0,0,1.165,0.0,0.8450231,93.925,1.40825,319.616,-9.27952,93.925
2367,2367,165.4236,20.2039,8.62704,0.0,0,1.09926,0.0,0.856099,94.1791,1.3347,317.805,-9.279171,94.1791
2372,2372,165.4246,20.5208,8.69844,0.0,0,1.03352,0.0,0.866527,94.3624,1.26514,315.995,-9.27854,94.3624
2377,2377,165.4256,20.8269,8.77521,0.0,0,0.967784,0.0,0.878426,94.3574,1.19578,314.184,-9.278841,94.3574
2382,2382,165.4266,21.1595,8.83106,0.0,0,0.9020443,0.0,0.888869,94.82,1.12285,312.373,-9.27843,94.82
2387,2387,165.4276,21.4818,8.90512,0.0,0,0.839081,0.0,0.899255,94.8585,1.05678,310.563,-9.27835,94.8585
2392,2392,165.4286,21.8066,8.96725,0.0,0,0.776561,0.0,0.911299,95.0957,0.987219,308.752,-9.27783,95.0957
2397,2397,165.4296,22.1693,9.03371,0.0,0,0.714041,0.0,0.921013,95.375,0.920518,306.941,-9.2782,95.375
2402,2402,165.4306,22.5031,9.100275,0.0,0,0.651521,0.0,0.9326061,95.4871,0.856178,305.131,-9.27747,95.4871
2407,2407,165.4316,22.8764,9.15694,0.0,0,0.589001,0.0,0.943082,95.9253,0.793536,303.32,-9.2773,95.9253
2412,2412,165.4326,23.2269,9.23107,0.0,0,0.529086,0.0,0.953934,95.8726,0.730405,303.245,-9.2773,95.8726
2417,2417,165.4336,23.62,9.28227,0.0,0,0.469586,0.0,0.9650349,96.4262,0.661434,303.5007,-9.27818,96.4262
2422,2422,165.4346,23.9795,9.34747,0.0,0,0.4100858,0.0,0.974903,96.5115,0.600658,303.756,-9.27704,96.5115
2426,2426,165.4354,24.2936,9.3896,0.0,0,0.362486,0.0,0.983824,96.8707,0.550961,303.961,-9.27678,96.8707